#FORMAT	     : EMSA/MAS Spectral Data File
#VERSION     : 1.0
#TITLE       : N2(0370-0570eV)
#DATE        : 
#TIME        : 
#OWNER       : 
#NPOINTS     : 963
#NCOLUMNS    : 1
#XUNITS      : eV
#YUNITS      : 
#DATATYPE    : XY
#XPERCHAN    : 2.087700e-001
#OFFSET      : 3.703459e+002
#SPECTRUM    : Spectral Data Starts Here
3.703459e+002, 0.000000e+000
3.705547e+002, 0.000000e+000
3.707634e+002, 0.000000e+000
3.709722e+002, 0.000000e+000
3.711810e+002, 0.000000e+000
3.713897e+002, 0.000000e+000
3.715985e+002, 0.000000e+000
3.718073e+002, 0.000000e+000
3.720161e+002, 0.000000e+000
3.722248e+002, 0.000000e+000
3.724336e+002, 1.213000e+003
3.726424e+002, 1.215000e+003
3.728511e+002, 1.218000e+003
3.730599e+002, 1.211000e+003
3.732687e+002, 1.209000e+003
3.734774e+002, 1.229000e+003
3.736862e+002, 1.202000e+003
3.738950e+002, 1.195000e+003
3.741038e+002, 1.196000e+003
3.743125e+002, 1.206000e+003
3.745213e+002, 1.199000e+003
3.747300e+002, 1.218000e+003
3.749388e+002, 1.207000e+003
3.751476e+002, 1.192000e+003
3.753564e+002, 1.200000e+003
3.755651e+002, 1.194000e+003
3.757739e+002, 1.193000e+003
3.759827e+002, 1.200000e+003
3.761914e+002, 1.185000e+003
3.764002e+002, 1.183000e+003
3.766090e+002, 1.186000e+003
3.768177e+002, 1.177000e+003
3.770265e+002, 1.175000e+003
3.772353e+002, 1.185000e+003
3.774441e+002, 1.183000e+003
3.776528e+002, 1.166000e+003
3.778616e+002, 1.174000e+003
3.780704e+002, 1.177000e+003
3.782791e+002, 1.168000e+003
3.784879e+002, 1.172000e+003
3.786967e+002, 1.171000e+003
3.789055e+002, 1.154000e+003
3.791142e+002, 1.168000e+003
3.793230e+002, 1.160000e+003
3.795318e+002, 1.157000e+003
3.797405e+002, 1.161000e+003
3.799493e+002, 1.152000e+003
3.801581e+002, 1.143000e+003
3.803669e+002, 1.145000e+003
3.805756e+002, 1.140000e+003
3.807844e+002, 1.149000e+003
3.809932e+002, 1.138000e+003
3.812019e+002, 1.138000e+003
3.814107e+002, 1.147000e+003
3.816195e+002, 1.136000e+003
3.818282e+002, 1.136000e+003
3.820370e+002, 1.139000e+003
3.822458e+002, 1.136000e+003
3.824546e+002, 1.135000e+003
3.826633e+002, 1.140000e+003
3.828721e+002, 1.136000e+003
3.830809e+002, 1.133000e+003
3.832896e+002, 1.125000e+003
3.834984e+002, 1.130000e+003
3.837072e+002, 1.122000e+003
3.839159e+002, 1.121000e+003
3.841247e+002, 1.129000e+003
3.843335e+002, 1.118000e+003
3.845422e+002, 1.121000e+003
3.847510e+002, 1.125000e+003
3.849598e+002, 1.115000e+003
3.851685e+002, 1.113000e+003
3.853773e+002, 1.116000e+003
3.855861e+002, 1.116000e+003
3.857949e+002, 1.105000e+003
3.860036e+002, 1.116000e+003
3.862124e+002, 1.122000e+003
3.864212e+002, 1.120000e+003
3.866299e+002, 1.111000e+003
3.868387e+002, 1.108000e+003
3.870475e+002, 1.100000e+003
3.872563e+002, 1.117000e+003
3.874650e+002, 1.114000e+003
3.876738e+002, 1.098000e+003
3.878826e+002, 1.115000e+003
3.880913e+002, 1.107000e+003
3.883001e+002, 1.091000e+003
3.885089e+002, 1.111000e+003
3.887177e+002, 1.114000e+003
3.889264e+002, 1.098000e+003
3.891352e+002, 1.114000e+003
3.893440e+002, 1.110000e+003
3.895527e+002, 1.098000e+003
3.897615e+002, 1.113000e+003
3.899703e+002, 1.115000e+003
3.901790e+002, 1.113000e+003
3.903878e+002, 1.133000e+003
3.905966e+002, 1.127000e+003
3.908054e+002, 1.125000e+003
3.910141e+002, 1.135000e+003
3.912229e+002, 1.140000e+003
3.914317e+002, 1.138000e+003
3.916404e+002, 1.142000e+003
3.918492e+002, 1.135000e+003
3.920580e+002, 1.139000e+003
3.922667e+002, 1.159000e+003
3.924755e+002, 1.157000e+003
3.926843e+002, 1.156000e+003
3.928930e+002, 1.177000e+003
3.931018e+002, 1.178000e+003
3.933106e+002, 1.178000e+003
3.935193e+002, 1.213000e+003
3.937281e+002, 1.219000e+003
3.939369e+002, 1.235000e+003
3.941457e+002, 1.267000e+003
3.943544e+002, 1.275000e+003
3.945632e+002, 1.288000e+003
3.947720e+002, 1.324000e+003
3.949807e+002, 1.344000e+003
3.951895e+002, 1.375000e+003
3.953983e+002, 1.417000e+003
3.956071e+002, 1.445000e+003
3.958158e+002, 1.493000e+003
3.960246e+002, 1.561000e+003
3.962334e+002, 1.626000e+003
3.964421e+002, 1.721000e+003
3.966509e+002, 1.855000e+003
3.968597e+002, 1.991000e+003
3.970685e+002, 2.210000e+003
3.972772e+002, 2.493000e+003
3.974860e+002, 2.830000e+003
3.976948e+002, 3.265000e+003
3.979035e+002, 3.851000e+003
3.981123e+002, 4.571000e+003
3.983211e+002, 5.548000e+003
3.985298e+002, 6.822000e+003
3.987386e+002, 8.444000e+003
3.989474e+002, 1.058500e+004
3.991562e+002, 1.323400e+004
3.993649e+002, 1.636500e+004
3.995737e+002, 1.985700e+004
3.997825e+002, 2.313400e+004
3.999912e+002, 2.551800e+004
4.002000e+002, 2.625800e+004
4.004088e+002, 2.521400e+004
4.006175e+002, 2.254700e+004
4.008263e+002, 1.909200e+004
4.010351e+002, 1.552900e+004
4.012438e+002, 1.239600e+004
4.014526e+002, 9.835000e+003
4.016614e+002, 7.837000e+003
4.018701e+002, 6.298000e+003
4.020789e+002, 5.139000e+003
4.022877e+002, 4.283000e+003
4.024965e+002, 3.638000e+003
4.027052e+002, 3.148000e+003
4.029140e+002, 2.794000e+003
4.031228e+002, 2.501000e+003
4.033315e+002, 2.297000e+003
4.035403e+002, 2.157000e+003
4.037491e+002, 2.038000e+003
4.039579e+002, 1.972000e+003
4.041666e+002, 1.954000e+003
4.043754e+002, 1.953000e+003
4.045842e+002, 1.989000e+003
4.047929e+002, 2.051000e+003
4.050017e+002, 2.136000e+003
4.052105e+002, 2.209000e+003
4.054193e+002, 2.324000e+003
4.056280e+002, 2.423000e+003
4.058368e+002, 2.510000e+003
4.060456e+002, 2.609000e+003
4.062543e+002, 2.684000e+003
4.064631e+002, 2.734000e+003
4.066719e+002, 2.755000e+003
4.068806e+002, 2.771000e+003
4.070894e+002, 2.771000e+003
4.072982e+002, 2.849000e+003
4.075070e+002, 2.962000e+003
4.077157e+002, 3.046000e+003
4.079245e+002, 3.162000e+003
4.081333e+002, 3.232000e+003
4.083420e+002, 3.298000e+003
4.085508e+002, 3.362000e+003
4.087596e+002, 3.405000e+003
4.089683e+002, 3.465000e+003
4.091771e+002, 3.511000e+003
4.093859e+002, 3.537000e+003
4.095946e+002, 3.553000e+003
4.098034e+002, 3.600000e+003
4.100122e+002, 3.614000e+003
4.102209e+002, 3.649000e+003
4.104297e+002, 3.681000e+003
4.106385e+002, 3.733000e+003
4.108473e+002, 3.785000e+003
4.110560e+002, 3.865000e+003
4.112648e+002, 3.958000e+003
4.114736e+002, 4.085000e+003
4.116823e+002, 4.256000e+003
4.118911e+002, 4.431000e+003
4.120999e+002, 4.652000e+003
4.123087e+002, 4.918000e+003
4.125174e+002, 5.177000e+003
4.127262e+002, 5.431000e+003
4.129350e+002, 5.688000e+003
4.131437e+002, 5.898000e+003
4.133525e+002, 6.084000e+003
4.135613e+002, 6.213000e+003
4.137701e+002, 6.278000e+003
4.139788e+002, 6.315000e+003
4.141876e+002, 6.347000e+003
4.143964e+002, 6.320000e+003
4.146051e+002, 6.281000e+003
4.148139e+002, 6.275000e+003
4.150227e+002, 6.225000e+003
4.152314e+002, 6.192000e+003
4.154402e+002, 6.176000e+003
4.156490e+002, 6.191000e+003
4.158578e+002, 6.172000e+003
4.160665e+002, 6.175000e+003
4.162753e+002, 6.178000e+003
4.164841e+002, 6.214000e+003
4.166928e+002, 6.278000e+003
4.169016e+002, 6.299000e+003
4.171104e+002, 6.360000e+003
4.173192e+002, 6.394000e+003
4.175279e+002, 6.432000e+003
4.177367e+002, 6.434000e+003
4.179454e+002, 6.523000e+003
4.181542e+002, 6.524000e+003
4.183630e+002, 6.531000e+003
4.185717e+002, 6.523000e+003
4.187805e+002, 6.494000e+003
4.189893e+002, 6.484000e+003
4.191981e+002, 6.448000e+003
4.194068e+002, 6.383000e+003
4.196156e+002, 6.341000e+003
4.198244e+002, 6.319000e+003
4.200331e+002, 6.249000e+003
4.202419e+002, 6.198000e+003
4.204507e+002, 6.165000e+003
4.206595e+002, 6.146000e+003
4.208682e+002, 6.083000e+003
4.210770e+002, 6.064000e+003
4.212858e+002, 6.006000e+003
4.214945e+002, 5.964000e+003
4.217033e+002, 5.944000e+003
4.219121e+002, 5.880000e+003
4.221208e+002, 5.848000e+003
4.223296e+002, 5.799000e+003
4.225384e+002, 5.768000e+003
4.227472e+002, 5.698000e+003
4.229559e+002, 5.703000e+003
4.231647e+002, 5.686000e+003
4.233735e+002, 5.648000e+003
4.235822e+002, 5.629000e+003
4.237910e+002, 5.620000e+003
4.239998e+002, 5.598000e+003
4.242086e+002, 5.573000e+003
4.244173e+002, 5.534000e+003
4.246261e+002, 5.489000e+003
4.248349e+002, 5.488000e+003
4.250436e+002, 5.466000e+003
4.252524e+002, 5.417000e+003
4.254612e+002, 5.414000e+003
4.256699e+002, 5.403000e+003
4.258787e+002, 5.387000e+003
4.260875e+002, 5.380000e+003
4.262963e+002, 5.358000e+003
4.265050e+002, 5.324000e+003
4.267138e+002, 5.333000e+003
4.269225e+002, 5.302000e+003
4.271313e+002, 5.273000e+003
4.273401e+002, 5.257000e+003
4.275489e+002, 5.243000e+003
4.277576e+002, 5.232000e+003
4.279664e+002, 5.227000e+003
4.281752e+002, 5.228000e+003
4.283839e+002, 5.209000e+003
4.285927e+002, 5.195000e+003
4.288015e+002, 5.185000e+003
4.290103e+002, 5.162000e+003
4.292190e+002, 5.166000e+003
4.294278e+002, 5.150000e+003
4.296366e+002, 5.157000e+003
4.298453e+002, 5.149000e+003
4.300541e+002, 5.139000e+003
4.302629e+002, 5.141000e+003
4.304716e+002, 5.136000e+003
4.306804e+002, 5.131000e+003
4.308892e+002, 5.118000e+003
4.310980e+002, 5.106000e+003
4.313067e+002, 5.114000e+003
4.315155e+002, 5.084000e+003
4.317243e+002, 5.069000e+003
4.319330e+002, 5.071000e+003
4.321418e+002, 5.043000e+003
4.323506e+002, 5.043000e+003
4.325594e+002, 5.023000e+003
4.327681e+002, 4.997000e+003
4.329769e+002, 4.990000e+003
4.331857e+002, 4.951000e+003
4.333944e+002, 4.943000e+003
4.336032e+002, 4.947000e+003
4.338120e+002, 4.919000e+003
4.340208e+002, 4.952000e+003
4.342295e+002, 4.939000e+003
4.344383e+002, 4.929000e+003
4.346470e+002, 4.888000e+003
4.348558e+002, 4.887000e+003
4.350646e+002, 4.886000e+003
4.352734e+002, 4.873000e+003
4.354821e+002, 4.856000e+003
4.356909e+002, 4.841000e+003
4.358997e+002, 4.824000e+003
4.361084e+002, 4.817000e+003
4.363172e+002, 4.801000e+003
4.365260e+002, 4.812000e+003
4.367347e+002, 4.797000e+003
4.369435e+002, 4.789000e+003
4.371523e+002, 4.781000e+003
4.373611e+002, 4.779000e+003
4.375698e+002, 4.769000e+003
4.377786e+002, 4.721000e+003
4.379874e+002, 4.720000e+003
4.381961e+002, 4.711000e+003
4.384049e+002, 4.708000e+003
4.386137e+002, 4.694000e+003
4.388224e+002, 4.691000e+003
4.390312e+002, 4.666000e+003
4.392400e+002, 4.670000e+003
4.394488e+002, 4.655000e+003
4.396575e+002, 4.627000e+003
4.398663e+002, 4.639000e+003
4.400751e+002, 4.645000e+003
4.402838e+002, 4.621000e+003
4.404926e+002, 4.617000e+003
4.407014e+002, 4.616000e+003
4.409102e+002, 4.588000e+003
4.411189e+002, 4.570000e+003
4.413277e+002, 4.565000e+003
4.415365e+002, 4.553000e+003
4.417452e+002, 4.563000e+003
4.419540e+002, 4.547000e+003
4.421628e+002, 4.522000e+003
4.423715e+002, 4.537000e+003
4.425803e+002, 4.537000e+003
4.427891e+002, 4.508000e+003
4.429979e+002, 4.507000e+003
4.432066e+002, 4.509000e+003
4.434154e+002, 4.496000e+003
4.436241e+002, 4.500000e+003
4.438329e+002, 4.460000e+003
4.440417e+002, 4.467000e+003
4.442505e+002, 4.457000e+003
4.444592e+002, 4.438000e+003
4.446680e+002, 4.437000e+003
4.448768e+002, 4.430000e+003
4.450855e+002, 4.421000e+003
4.452943e+002, 4.421000e+003
4.455031e+002, 4.399000e+003
4.457119e+002, 4.381000e+003
4.459206e+002, 4.368000e+003
4.461294e+002, 4.374000e+003
4.463382e+002, 4.353000e+003
4.465469e+002, 4.348000e+003
4.467557e+002, 4.317000e+003
4.469645e+002, 4.309000e+003
4.471732e+002, 4.295000e+003
4.473820e+002, 4.282000e+003
4.475908e+002, 4.294000e+003
4.477996e+002, 4.264000e+003
4.480083e+002, 4.276000e+003
4.482171e+002, 4.246000e+003
4.484259e+002, 4.233000e+003
4.486346e+002, 4.203000e+003
4.488434e+002, 4.207000e+003
4.490522e+002, 4.192000e+003
4.492610e+002, 4.203000e+003
4.494697e+002, 4.186000e+003
4.496785e+002, 4.176000e+003
4.498873e+002, 4.190000e+003
4.500960e+002, 4.173000e+003
4.503048e+002, 4.142000e+003
4.505135e+002, 4.149000e+003
4.507224e+002, 4.126000e+003
4.509311e+002, 4.112000e+003
4.511399e+002, 4.119000e+003
4.513486e+002, 4.118000e+003
4.515574e+002, 4.101000e+003
4.517662e+002, 4.094000e+003
4.519750e+002, 4.055000e+003
4.521837e+002, 4.049000e+003
4.523925e+002, 4.056000e+003
4.526013e+002, 4.028000e+003
4.528100e+002, 4.031000e+003
4.530188e+002, 4.034000e+003
4.532276e+002, 4.015000e+003
4.534363e+002, 3.992000e+003
4.536451e+002, 3.967000e+003
4.538539e+002, 3.967000e+003
4.540627e+002, 3.964000e+003
4.542714e+002, 3.960000e+003
4.544802e+002, 3.961000e+003
4.546890e+002, 3.944000e+003
4.548977e+002, 3.954000e+003
4.551065e+002, 3.915000e+003
4.553153e+002, 3.911000e+003
4.555240e+002, 3.912000e+003
4.557328e+002, 3.911000e+003
4.559416e+002, 3.899000e+003
4.561504e+002, 3.904000e+003
4.563591e+002, 3.884000e+003
4.565679e+002, 3.861000e+003
4.567767e+002, 3.853000e+003
4.569854e+002, 3.840000e+003
4.571942e+002, 3.824000e+003
4.574030e+002, 3.840000e+003
4.576118e+002, 3.844000e+003
4.578205e+002, 3.817000e+003
4.580293e+002, 3.819000e+003
4.582381e+002, 3.791000e+003
4.584468e+002, 3.791000e+003
4.586556e+002, 3.797000e+003
4.588644e+002, 3.778000e+003
4.590731e+002, 3.779000e+003
4.592819e+002, 3.777000e+003
4.594907e+002, 3.770000e+003
4.596995e+002, 3.753000e+003
4.599082e+002, 3.750000e+003
4.601170e+002, 3.726000e+003
4.603257e+002, 3.721000e+003
4.605345e+002, 3.732000e+003
4.607433e+002, 3.704000e+003
4.609521e+002, 3.696000e+003
4.611608e+002, 3.695000e+003
4.613696e+002, 3.674000e+003
4.615784e+002, 3.680000e+003
4.617871e+002, 3.671000e+003
4.619959e+002, 3.656000e+003
4.622047e+002, 3.643000e+003
4.624135e+002, 3.656000e+003
4.626222e+002, 3.630000e+003
4.628310e+002, 3.619000e+003
4.630398e+002, 3.627000e+003
4.632485e+002, 3.599000e+003
4.634573e+002, 3.584000e+003
4.636661e+002, 3.599000e+003
4.638748e+002, 3.584000e+003
4.640836e+002, 3.543000e+003
4.642924e+002, 3.560000e+003
4.645012e+002, 3.551000e+003
4.647099e+002, 3.554000e+003
4.649187e+002, 3.539000e+003
4.651275e+002, 3.528000e+003
4.653362e+002, 3.517000e+003
4.655450e+002, 3.519000e+003
4.657538e+002, 3.507000e+003
4.659626e+002, 3.494000e+003
4.661713e+002, 3.502000e+003
4.663801e+002, 3.486000e+003
4.665889e+002, 3.476000e+003
4.667976e+002, 3.484000e+003
4.670064e+002, 3.473000e+003
4.672152e+002, 3.447000e+003
4.674240e+002, 3.457000e+003
4.676327e+002, 3.417000e+003
4.678415e+002, 3.411000e+003
4.680502e+002, 3.411000e+003
4.682590e+002, 3.421000e+003
4.684678e+002, 3.404000e+003
4.686766e+002, 3.407000e+003
4.688853e+002, 3.394000e+003
4.690941e+002, 3.357000e+003
4.693029e+002, 3.368000e+003
4.695117e+002, 3.358000e+003
4.697204e+002, 3.357000e+003
4.699292e+002, 3.365000e+003
4.701379e+002, 3.339000e+003
4.703467e+002, 3.317000e+003
4.705555e+002, 3.304000e+003
4.707643e+002, 3.309000e+003
4.709730e+002, 3.315000e+003
4.711818e+002, 3.305000e+003
4.713906e+002, 3.308000e+003
4.715993e+002, 3.283000e+003
4.718081e+002, 3.289000e+003
4.720169e+002, 3.280000e+003
4.722256e+002, 3.282000e+003
4.724344e+002, 3.278000e+003
4.726432e+002, 3.256000e+003
4.728520e+002, 3.253000e+003
4.730607e+002, 3.260000e+003
4.732695e+002, 3.260000e+003
4.734783e+002, 3.242000e+003
4.736870e+002, 3.245000e+003
4.738958e+002, 3.224000e+003
4.741046e+002, 3.200000e+003
4.743134e+002, 3.219000e+003
4.745221e+002, 3.202000e+003
4.747309e+002, 3.195000e+003
4.749397e+002, 3.192000e+003
4.751484e+002, 3.179000e+003
4.753572e+002, 3.164000e+003
4.755660e+002, 3.165000e+003
4.757747e+002, 3.162000e+003
4.759835e+002, 3.152000e+003
4.761923e+002, 3.154000e+003
4.764011e+002, 3.135000e+003
4.766098e+002, 3.139000e+003
4.768186e+002, 3.136000e+003
4.770273e+002, 3.114000e+003
4.772361e+002, 3.119000e+003
4.774449e+002, 3.117000e+003
4.776537e+002, 3.107000e+003
4.778624e+002, 3.094000e+003
4.780712e+002, 3.090000e+003
4.782800e+002, 3.069000e+003
4.784887e+002, 3.055000e+003
4.786975e+002, 3.052000e+003
4.789063e+002, 3.058000e+003
4.791151e+002, 3.029000e+003
4.793238e+002, 3.043000e+003
4.795326e+002, 3.022000e+003
4.797414e+002, 3.021000e+003
4.799501e+002, 3.041000e+003
4.801589e+002, 3.031000e+003
4.803677e+002, 3.015000e+003
4.805764e+002, 3.023000e+003
4.807852e+002, 3.016000e+003
4.809940e+002, 3.014000e+003
4.812028e+002, 3.001000e+003
4.814115e+002, 2.976000e+003
4.816203e+002, 2.981000e+003
4.818291e+002, 2.982000e+003
4.820378e+002, 2.944000e+003
4.822466e+002, 2.958000e+003
4.824554e+002, 2.967000e+003
4.826642e+002, 2.949000e+003
4.828729e+002, 2.949000e+003
4.830817e+002, 2.936000e+003
4.832905e+002, 2.925000e+003
4.834992e+002, 2.911000e+003
4.837080e+002, 2.915000e+003
4.839168e+002, 2.914000e+003
4.841255e+002, 2.900000e+003
4.843343e+002, 2.892000e+003
4.845431e+002, 2.865000e+003
4.847518e+002, 2.867000e+003
4.849606e+002, 2.884000e+003
4.851694e+002, 2.885000e+003
4.853782e+002, 2.861000e+003
4.855869e+002, 2.873000e+003
4.857957e+002, 2.858000e+003
4.860045e+002, 2.854000e+003
4.862133e+002, 2.834000e+003
4.864220e+002, 2.818000e+003
4.866308e+002, 2.817000e+003
4.868395e+002, 2.834000e+003
4.870483e+002, 2.826000e+003
4.872571e+002, 2.831000e+003
4.874659e+002, 2.820000e+003
4.876746e+002, 2.820000e+003
4.878834e+002, 2.807000e+003
4.880922e+002, 2.813000e+003
4.883009e+002, 2.807000e+003
4.885097e+002, 2.787000e+003
4.887185e+002, 2.796000e+003
4.889272e+002, 2.795000e+003
4.891360e+002, 2.791000e+003
4.893448e+002, 2.786000e+003
4.895536e+002, 2.779000e+003
4.897623e+002, 2.781000e+003
4.899711e+002, 2.783000e+003
4.901799e+002, 2.755000e+003
4.903886e+002, 2.750000e+003
4.905974e+002, 2.749000e+003
4.908062e+002, 2.739000e+003
4.910150e+002, 2.739000e+003
4.912237e+002, 2.736000e+003
4.914325e+002, 2.723000e+003
4.916413e+002, 2.729000e+003
4.918500e+002, 2.721000e+003
4.920588e+002, 2.719000e+003
4.922676e+002, 2.707000e+003
4.924763e+002, 2.714000e+003
4.926851e+002, 2.702000e+003
4.928939e+002, 2.693000e+003
4.931027e+002, 2.699000e+003
4.933114e+002, 2.681000e+003
4.935202e+002, 2.671000e+003
4.937289e+002, 2.676000e+003
4.939377e+002, 2.659000e+003
4.941465e+002, 2.667000e+003
4.943553e+002, 2.675000e+003
4.945640e+002, 2.665000e+003
4.947728e+002, 2.651000e+003
4.949816e+002, 2.656000e+003
4.951904e+002, 2.617000e+003
4.953991e+002, 2.622000e+003
4.956079e+002, 2.628000e+003
4.958167e+002, 2.617000e+003
4.960254e+002, 2.617000e+003
4.962342e+002, 2.609000e+003
4.964430e+002, 2.607000e+003
4.966517e+002, 2.608000e+003
4.968605e+002, 2.593000e+003
4.970693e+002, 2.599000e+003
4.972780e+002, 2.589000e+003
4.974868e+002, 2.582000e+003
4.976956e+002, 2.574000e+003
4.979044e+002, 2.577000e+003
4.981131e+002, 2.571000e+003
4.983219e+002, 2.574000e+003
4.985307e+002, 2.562000e+003
4.987394e+002, 2.574000e+003
4.989482e+002, 2.546000e+003
4.991570e+002, 2.542000e+003
4.993658e+002, 2.539000e+003
4.995745e+002, 2.543000e+003
4.997833e+002, 2.518000e+003
4.999921e+002, 2.529000e+003
5.002008e+002, 2.520000e+003
5.004096e+002, 2.490000e+003
5.006184e+002, 2.516000e+003
5.008271e+002, 2.510000e+003
5.010359e+002, 2.493000e+003
5.012447e+002, 2.510000e+003
5.014534e+002, 2.502000e+003
5.016622e+002, 2.492000e+003
5.018710e+002, 2.483000e+003
5.020798e+002, 2.485000e+003
5.022885e+002, 2.480000e+003
5.024973e+002, 2.490000e+003
5.027061e+002, 2.475000e+003
5.029149e+002, 2.458000e+003
5.031236e+002, 2.476000e+003
5.033324e+002, 2.467000e+003
5.035411e+002, 2.463000e+003
5.037499e+002, 2.463000e+003
5.039587e+002, 2.452000e+003
5.041675e+002, 2.449000e+003
5.043762e+002, 2.449000e+003
5.045850e+002, 2.438000e+003
5.047938e+002, 2.428000e+003
5.050026e+002, 2.432000e+003
5.052113e+002, 2.413000e+003
5.054201e+002, 2.426000e+003
5.056288e+002, 2.444000e+003
5.058376e+002, 2.430000e+003
5.060464e+002, 2.407000e+003
5.062552e+002, 2.417000e+003
5.064639e+002, 2.418000e+003
5.066727e+002, 2.397000e+003
5.068815e+002, 2.391000e+003
5.070902e+002, 2.388000e+003
5.072990e+002, 2.377000e+003
5.075078e+002, 2.388000e+003
5.077166e+002, 2.388000e+003
5.079253e+002, 2.376000e+003
5.081341e+002, 2.376000e+003
5.083429e+002, 2.370000e+003
5.085516e+002, 2.372000e+003
5.087604e+002, 2.366000e+003
5.089692e+002, 2.355000e+003
5.091779e+002, 2.349000e+003
5.093867e+002, 2.354000e+003
5.095955e+002, 2.357000e+003
5.098043e+002, 2.341000e+003
5.100130e+002, 2.346000e+003
5.102218e+002, 2.338000e+003
5.104305e+002, 2.335000e+003
5.106393e+002, 2.318000e+003
5.108481e+002, 2.318000e+003
5.110569e+002, 2.313000e+003
5.112656e+002, 2.333000e+003
5.114744e+002, 2.318000e+003
5.116832e+002, 2.306000e+003
5.118920e+002, 2.316000e+003
5.121007e+002, 2.301000e+003
5.123095e+002, 2.300000e+003
5.125182e+002, 2.302000e+003
5.127271e+002, 2.286000e+003
5.129358e+002, 2.276000e+003
5.131446e+002, 2.286000e+003
5.133533e+002, 2.283000e+003
5.135621e+002, 2.275000e+003
5.137709e+002, 2.283000e+003
5.139796e+002, 2.270000e+003
5.141884e+002, 2.269000e+003
5.143972e+002, 2.276000e+003
5.146060e+002, 2.262000e+003
5.148147e+002, 2.256000e+003
5.150235e+002, 2.253000e+003
5.152323e+002, 2.247000e+003
5.154410e+002, 2.233000e+003
5.156498e+002, 2.232000e+003
5.158586e+002, 2.220000e+003
5.160674e+002, 2.217000e+003
5.162761e+002, 2.234000e+003
5.164849e+002, 2.227000e+003
5.166937e+002, 2.215000e+003
5.169025e+002, 2.219000e+003
5.171112e+002, 2.214000e+003
5.173199e+002, 2.209000e+003
5.175287e+002, 2.226000e+003
5.177375e+002, 2.214000e+003
5.179463e+002, 2.200000e+003
5.181550e+002, 2.204000e+003
5.183638e+002, 2.201000e+003
5.185726e+002, 2.196000e+003
5.187814e+002, 2.202000e+003
5.189901e+002, 2.195000e+003
5.191989e+002, 2.187000e+003
5.194077e+002, 2.198000e+003
5.196165e+002, 2.200000e+003
5.198252e+002, 2.187000e+003
5.200340e+002, 2.188000e+003
5.202427e+002, 2.171000e+003
5.204515e+002, 2.170000e+003
5.206603e+002, 2.182000e+003
5.208691e+002, 2.175000e+003
5.210778e+002, 2.169000e+003
5.212866e+002, 2.158000e+003
5.214954e+002, 2.168000e+003
5.217042e+002, 2.145000e+003
5.219129e+002, 2.155000e+003
5.221217e+002, 2.149000e+003
5.223304e+002, 2.144000e+003
5.225392e+002, 2.154000e+003
5.227480e+002, 2.142000e+003
5.229568e+002, 2.131000e+003
5.231655e+002, 2.145000e+003
5.233743e+002, 2.137000e+003
5.235831e+002, 2.125000e+003
5.237919e+002, 2.127000e+003
5.240006e+002, 2.121000e+003
5.242094e+002, 2.118000e+003
5.244182e+002, 2.122000e+003
5.246270e+002, 2.129000e+003
5.248357e+002, 2.125000e+003
5.250444e+002, 2.131000e+003
5.252532e+002, 2.115000e+003
5.254620e+002, 2.115000e+003
5.256708e+002, 2.131000e+003
5.258795e+002, 2.115000e+003
5.260883e+002, 2.107000e+003
5.262971e+002, 2.118000e+003
5.265059e+002, 2.118000e+003
5.267146e+002, 2.111000e+003
5.269234e+002, 2.116000e+003
5.271321e+002, 2.148000e+003
5.273409e+002, 2.147000e+003
5.275497e+002, 2.183000e+003
5.277585e+002, 2.194000e+003
5.279672e+002, 2.222000e+003
5.281760e+002, 2.272000e+003
5.283848e+002, 2.328000e+003
5.285936e+002, 2.388000e+003
5.288023e+002, 2.500000e+003
5.290111e+002, 2.605000e+003
5.292198e+002, 2.743000e+003
5.294286e+002, 2.924000e+003
5.296374e+002, 3.088000e+003
5.298462e+002, 3.265000e+003
5.300549e+002, 3.433000e+003
5.302637e+002, 3.521000e+003
5.304725e+002, 3.559000e+003
5.306813e+002, 3.489000e+003
5.308900e+002, 3.364000e+003
5.310988e+002, 3.176000e+003
5.313076e+002, 3.000000e+003
5.315164e+002, 2.836000e+003
5.317251e+002, 2.675000e+003
5.319338e+002, 2.566000e+003
5.321426e+002, 2.460000e+003
5.323514e+002, 2.364000e+003
5.325602e+002, 2.305000e+003
5.327689e+002, 2.235000e+003
5.329777e+002, 2.186000e+003
5.331865e+002, 2.163000e+003
5.333953e+002, 2.130000e+003
5.336040e+002, 2.119000e+003
5.338128e+002, 2.101000e+003
5.340216e+002, 2.093000e+003
5.342303e+002, 2.070000e+003
5.344391e+002, 2.077000e+003
5.346479e+002, 2.067000e+003
5.348567e+002, 2.053000e+003
5.350654e+002, 2.075000e+003
5.352742e+002, 2.069000e+003
5.354830e+002, 2.070000e+003
5.356917e+002, 2.083000e+003
5.359005e+002, 2.090000e+003
5.361093e+002, 2.086000e+003
5.363181e+002, 2.115000e+003
5.365268e+002, 2.129000e+003
5.367356e+002, 2.152000e+003
5.369443e+002, 2.186000e+003
5.371531e+002, 2.229000e+003
5.373619e+002, 2.256000e+003
5.375707e+002, 2.296000e+003
5.377794e+002, 2.346000e+003
5.379882e+002, 2.389000e+003
5.381970e+002, 2.438000e+003
5.384058e+002, 2.492000e+003
5.386145e+002, 2.523000e+003
5.388233e+002, 2.557000e+003
5.390320e+002, 2.575000e+003
5.392408e+002, 2.587000e+003
5.394496e+002, 2.605000e+003
5.396583e+002, 2.591000e+003
5.398671e+002, 2.589000e+003
5.400759e+002, 2.587000e+003
5.402847e+002, 2.596000e+003
5.404934e+002, 2.589000e+003
5.407022e+002, 2.617000e+003
5.409110e+002, 2.627000e+003
5.411198e+002, 2.625000e+003
5.413285e+002, 2.635000e+003
5.415373e+002, 2.633000e+003
5.417461e+002, 2.606000e+003
5.419548e+002, 2.613000e+003
5.421636e+002, 2.619000e+003
5.423724e+002, 2.598000e+003
5.425812e+002, 2.600000e+003
5.427899e+002, 2.584000e+003
5.429987e+002, 2.569000e+003
5.432075e+002, 2.544000e+003
5.434163e+002, 2.543000e+003
5.436250e+002, 2.520000e+003
5.438337e+002, 2.495000e+003
5.440425e+002, 2.481000e+003
5.442513e+002, 2.464000e+003
5.444601e+002, 2.431000e+003
5.446688e+002, 2.410000e+003
5.448776e+002, 2.397000e+003
5.450864e+002, 2.386000e+003
5.452952e+002, 2.353000e+003
5.455039e+002, 2.336000e+003
5.457127e+002, 2.345000e+003
5.459214e+002, 2.322000e+003
5.461302e+002, 2.322000e+003
5.463390e+002, 2.338000e+003
5.465478e+002, 2.308000e+003
5.467565e+002, 2.282000e+003
5.469653e+002, 2.287000e+003
5.471741e+002, 2.285000e+003
5.473829e+002, 2.284000e+003
5.475916e+002, 2.286000e+003
5.478004e+002, 2.280000e+003
5.480092e+002, 2.263000e+003
5.482179e+002, 2.274000e+003
5.484267e+002, 2.254000e+003
5.486355e+002, 2.254000e+003
5.488442e+002, 2.261000e+003
5.490530e+002, 2.261000e+003
5.492618e+002, 2.267000e+003
5.494706e+002, 2.265000e+003
5.496793e+002, 2.264000e+003
5.498881e+002, 2.248000e+003
5.500969e+002, 2.261000e+003
5.503057e+002, 2.249000e+003
5.505144e+002, 2.249000e+003
5.507231e+002, 2.257000e+003
5.509319e+002, 2.230000e+003
5.511407e+002, 2.234000e+003
5.513495e+002, 2.245000e+003
5.515582e+002, 2.250000e+003
5.517670e+002, 2.243000e+003
5.519758e+002, 2.244000e+003
5.521846e+002, 2.238000e+003
5.523933e+002, 2.217000e+003
5.526021e+002, 2.223000e+003
5.528109e+002, 2.222000e+003
5.530197e+002, 2.224000e+003
5.532284e+002, 2.243000e+003
5.534372e+002, 2.219000e+003
5.536459e+002, 2.218000e+003
5.538547e+002, 2.232000e+003
5.540635e+002, 2.220000e+003
5.542723e+002, 2.208000e+003
5.544810e+002, 2.212000e+003
5.546898e+002, 2.202000e+003
5.548986e+002, 2.208000e+003
5.551074e+002, 2.207000e+003
5.553161e+002, 2.208000e+003
5.555249e+002, 2.190000e+003
5.557336e+002, 2.201000e+003
5.559424e+002, 2.205000e+003
5.561512e+002, 2.186000e+003
5.563600e+002, 2.188000e+003
5.565687e+002, 2.182000e+003
5.567775e+002, 2.177000e+003
5.569863e+002, 2.174000e+003
5.571951e+002, 2.166000e+003
5.574038e+002, 2.166000e+003
5.576125e+002, 2.165000e+003
5.578214e+002, 2.162000e+003
5.580302e+002, 2.160000e+003
5.582389e+002, 2.171000e+003
5.584476e+002, 2.162000e+003
5.586564e+002, 2.149000e+003
5.588652e+002, 2.172000e+003
5.590740e+002, 2.159000e+003
5.592827e+002, 2.149000e+003
5.594915e+002, 2.148000e+003
5.597003e+002, 2.153000e+003
5.599091e+002, 2.141000e+003
5.601178e+002, 2.150000e+003
5.603266e+002, 2.142000e+003
5.605354e+002, 2.137000e+003
5.607441e+002, 2.131000e+003
5.609529e+002, 2.132000e+003
5.611617e+002, 2.116000e+003
5.613704e+002, 2.126000e+003
5.615792e+002, 2.113000e+003
5.617880e+002, 2.119000e+003
5.619968e+002, 2.123000e+003
5.622055e+002, 2.111000e+003
5.624143e+002, 2.092000e+003
5.626230e+002, 2.108000e+003
5.628318e+002, 2.111000e+003
5.630406e+002, 2.093000e+003
5.632494e+002, 2.102000e+003
5.634581e+002, 2.093000e+003
5.636669e+002, 2.087000e+003
5.638757e+002, 2.083000e+003
5.640845e+002, 2.083000e+003
5.642932e+002, 2.084000e+003
5.645020e+002, 2.092000e+003
5.647108e+002, 2.078000e+003
5.649196e+002, 2.065000e+003
5.651283e+002, 2.066000e+003
5.653370e+002, 2.067000e+003
5.655458e+002, 2.056000e+003
5.657546e+002, 2.065000e+003
5.659634e+002, 2.049000e+003
5.661721e+002, 2.049000e+003
5.663809e+002, 2.045000e+003
5.665897e+002, 2.051000e+003
5.667985e+002, 2.053000e+003
5.670072e+002, 2.055000e+003
5.672160e+002, 2.055000e+003
5.674248e+002, 2.040000e+003
5.676335e+002, 2.046000e+003
5.678423e+002, 2.042000e+003
5.680511e+002, 2.028000e+003
5.682599e+002, 2.032000e+003
5.684686e+002, 2.024000e+003
5.686774e+002, 2.010000e+003
5.688862e+002, 2.019000e+003
5.690950e+002, 2.018000e+003
5.693037e+002, 2.017000e+003
5.695125e+002, 2.029000e+003
5.697213e+002, 2.004000e+003
5.699300e+002, 2.007000e+003
5.701388e+002, 1.998000e+003
5.703475e+002, 2.012000e+003
5.705563e+002, 1.991000e+003
5.707651e+002, 2.005000e+003
5.709739e+002, 1.998000e+003
5.711826e+002, 1.980000e+003
#ENDOFDATA   : End Of Data and File