Thermal SiO2, Herzinger et.al., JAP v83p3323y1998, (multi-wavelength, multi-sample analysis)
ANGSTROMS
E1E2
2500.0000	2.2907579	0.0000000
2600.0000	2.2753101	0.0000000
2700.0000	2.2619329	0.0000000
2800.0000	2.2502618	0.0000000
2900.0000	2.2400047	0.0000000
3000.0000	2.2309320	0.0000000
3100.0000	2.2228632	0.0000000
3200.0000	2.2156489	0.0000000
3300.0000	2.2091680	0.0000000
3400.0000	2.2033206	0.0000000
3500.0000	2.1980208	0.0000000
3600.0000	2.1932027	0.0000000
3700.0000	2.1888056	0.0000000
3800.0000	2.1847770	0.0000000
3900.0000	2.1810786	0.0000000
4000.0000	2.1776726	0.0000000
4100.0000	2.1745284	0.0000000
4200.0000	2.1716131	0.0000000
4300.0000	2.1689077	0.0000000
4400.0000	2.1663912	0.0000000
4500.0000	2.1640444	0.0000000
4600.0000	2.1618515	0.0000000
4700.0000	2.1597967	0.0000000
4800.0000	2.1578693	0.0000000
4900.0000	2.1560580	0.0000000
5000.0000	2.1543519	0.0000000
5100.0000	2.1527414	0.0000000
5200.0000	2.1512203	0.0000000
5300.0000	2.1497774	0.0000000
5400.0000	2.1484128	0.0000000
5500.0000	2.1471153	0.0000000
5600.0000	2.1458813	0.0000000
5700.0000	2.1447063	0.0000000
5800.0000	2.1435858	0.0000000
5900.0000	2.1425149	0.0000000
6000.0000	2.1414901	0.0000000
6100.0000	2.1405107	0.0000000
6200.0000	2.1395702	0.0000000
6300.0000	2.1386668	0.0000000
6400.0000	2.1377980	0.0000000
6500.0000	2.1369620	0.0000000
6600.0000	2.1361562	0.0000000
6700.0000	2.1353804	0.0000000
6800.0000	2.1346300	0.0000000
6900.0000	2.1339041	0.0000000
7000.0000	2.1331989	0.0000000
7100.0000	2.1325181	0.0000000
7200.0000	2.1318591	0.0000000
7300.0000	2.1312153	0.0000000
7400.0000	2.1305925	0.0000000
7500.0000	2.1299860	0.0000000
7600.0000	2.1293952	0.0000000
7700.0000	2.1288172	0.0000000
7800.0000	2.1282539	0.0000000
7900.0000	2.1277049	0.0000000
8000.0000	2.1271699	0.0000000
8100.0000	2.1266425	0.0000000
8200.0000	2.1261285	0.0000000
8300.0000	2.1256239	0.0000000
8400.0000	2.1251301	0.0000000
8500.0000	2.1246439	0.0000000
8600.0000	2.1241669	0.0000000
8700.0000	2.1236984	0.0000000
8800.0000	2.1232368	0.0000000
8900.0000	2.1227821	0.0000000
9000.0000	2.1223337	0.0000000
9100.0000	2.1218927	0.0000000
9200.0000	2.1214569	0.0000000
9300.0000	2.1210287	0.0000000
9400.0000	2.1206037	0.0000000
9500.0000	2.1201833	0.0000000
9600.0000	2.1197689	0.0000000
9700.0000	2.1193580	0.0000000
9800.0000	2.1189518	0.0000000
9900.0000	2.1185492	0.0000000
10000.0000	2.1181486	0.0000000
